#Measurement:	IV
#Sensor type:	Diode
#Identifier:	W311-D1_2s
#Timestamp:	25.11.2016 15:30 

#Voltage	#Channel	#Current [A]
-2.0	1	-8.132E-8
-1.0	1	-3.766E-8
0.0	1	-2.726E-9
1.0	1	-3.153E-10
5.0	1	-2.250E-10
10.0	1	-1.307E-10
25.0	1	1.780E-10
50.0	1	6.737E-10
75.0	1	1.163E-9
100.0	1	1.521E-9
150.0	1	2.472E-9
200.0	1	3.188E-9
250.0	1	3.823E-9
300.0	1	4.386E-9
350.0	1	1.635E-6
400.0	1	5.623E-6
500.0	1	9.894E-6
600.0	1	1.189E-5
